HR-XRDScan
FileName, 002 om.x00
FileDateTime, 13-Mar-2015,13:13
Sample, 
Reflection, 0 0 2
Wavelength, 1.5405980
GenkVmA, 10, 10
Omega, 17.20075
TwoTheta, 34.86700
X, 4.00
Y, 25.00
Phi, 0.000
Psi, -2.909
ScanType, CONTINUOUS
ScanAxis, Omega
FirstAngle, 16.20075
ScanRange, 2.00000
StepWidth, 0.00500
TimePerStep, 0.800
NrOfData, 401
ScanData
21.2500
16.2500
21.2500
15.0000
31.2500
25.0000
21.2500
27.5000
18.7500
33.7500
35.0000
30.0000
20.0000
18.7500
26.2500
27.5000
30.0000
33.7500
25.0000
27.5000
18.7500
16.2500
27.5000
43.7500
25.0000
22.5000
43.7500
37.5000
28.7500
33.7500
37.5000
33.7500
46.2500
43.7500
31.2500
38.7500
32.5000
42.5000
52.5000
45.0000
41.2500
63.7500
56.2500
41.2500
46.2500
43.7500
51.2500
61.2500
58.7500
46.2500
63.7500
60.0000
66.2500
72.5000
63.7500
76.2500
75.0000
117.5000
82.5000
76.2500
90.0000
106.2500
83.7500
101.2500
116.2500
101.2500
102.5000
110.0000
110.0000
137.5000
118.7500
131.2500
158.7500
127.5000
157.5000
153.7500
182.5000
158.7500
172.5000
192.5000
157.5000
203.7500
180.0000
242.5000
225.0000
243.7500
240.0000
295.0000
293.7500
303.7500
312.5000
347.5000
355.0000
366.2500
427.5000
397.5000
428.7500
473.7500
463.7500
485.0000
515.0000
515.0000
653.7500
532.5000
616.2500
638.7500
687.5000
721.2500
785.0000
785.0000
818.7500
856.2500
942.5000
983.7500
1036.2500
1045.0000
1115.0000
1132.5000
1162.5000
1263.7500
1288.7500
1330.0000
1427.5000
1451.2500
1585.0000
1608.7500
1670.0000
1691.2500
1805.0000
1910.0000
2015.0000
2071.2500
2185.0000
2195.0000
2162.5000
2377.5000
2548.7500
2431.2500
2603.7500
2721.2500
2820.0000
3047.5000
3011.2500
3213.7500
3291.2500
3507.5000
3551.2500
4248.7500
5133.7500
5306.2500
5565.0000
5953.7500
5986.2500
6253.7500
6545.0000
6942.5000
7045.0000
7205.0000
7941.2500
7983.7500
8448.7500
8686.2500
8898.7500
9355.0000
9487.5000
10020.0000
10108.7500
10601.2500
10702.5000
11060.0000
11445.0000
11418.7500
11638.7500
11850.0000
12166.2500
12253.7500
12422.5000
12411.2500
12701.2500
12450.0000
12546.2500
12740.0000
12527.5000
12635.0000
12480.0000
12208.7500
12260.0000
12178.7500
11975.0000
11650.0000
11490.0000
11288.7500
10981.2500
10520.0000
10130.0000
10116.2500
9702.5000
9333.7500
8990.0000
8753.7500
8517.5000
8406.2500
7862.5000
7708.7500
7267.5000
7013.7500
6658.7500
6517.5000
6240.0000
5897.5000
5745.0000
5333.7500
5275.0000
5113.7500
4833.7500
4570.0000
4398.7500
4037.5000
4086.2500
3766.2500
2831.2500
2686.2500
2568.7500
2461.2500
2488.7500
2225.0000
2203.7500
2091.2500
2040.0000
1945.0000
1760.0000
1747.5000
1623.7500
1612.5000
1557.5000
1485.0000
1441.2500
1335.0000
1361.2500
1331.2500
1301.2500
1251.2500
1072.5000
1172.5000
1127.5000
1065.0000
1037.5000
1066.2500
1092.5000
1046.2500
1026.2500
1100.0000
1105.0000
1038.7500
1128.7500
1237.5000
1361.2500
1360.0000
1603.7500
1657.5000
1832.5000
2108.7500
2447.5000
2710.0000
3100.0000
3702.5000
4216.2500
5125.0000
6120.0000
7331.2500
9032.5000
11446.2500
14553.7500
18611.2500
24916.2500
34621.2500
49128.7500
72803.7500
96861.2500
93846.2500
70226.2500
50298.7500
36661.2500
27453.7500
20648.7500
15623.7500
12101.2500
9648.7500
7653.7500
6278.7500
5025.0000
4126.2500
3470.0000
2857.5000
2267.5000
2012.5000
1730.0000
1482.5000
1295.0000
1061.2500
900.0000
795.0000
707.5000
622.5000
561.2500
480.0000
432.5000
388.7500
313.7500
258.7500
248.7500
218.7500
217.5000
195.0000
173.7500
170.0000
153.7500
137.5000
121.2500
115.0000
115.0000
102.5000
80.0000
87.5000
76.2500
73.7500
72.5000
76.2500
67.5000
57.5000
53.7500
56.2500
48.7500
56.2500
46.2500
53.7500
42.5000
41.2500
40.0000
48.7500
30.0000
32.5000
47.5000
31.2500
38.7500
38.7500
33.7500
33.7500
31.2500
26.2500
28.7500
30.0000
28.7500
37.5000
17.5000
25.0000
17.5000
27.5000
25.0000
27.5000
27.5000
25.0000
15.0000
21.2500
13.7500
27.5000
25.0000
22.5000
18.7500
18.7500
15.0000
13.7500
17.5000
13.7500
8.7500
13.7500
8.7500
15.0000
15.0000
10.0000
6.2500
13.7500
16.2500
16.2500
16.2500
15.0000
12.5000
13.7500
11.2500
21.2500
6.2500
16.2500
12.5000
13.7500
5.0000
17.5000
7.5000
12.5000
8.7500
11.2500
16.2500